#RES  Dist(A) lDDT_CA(%)
1       7.513    0.375
2       1.171    0.708
3       1.188    0.717
4       0.940    0.713
5       0.754    0.745
6       0.764    0.819
7       1.215    0.781
8       1.050    0.784
9       0.536    0.870
10      1.229    0.845
11      1.467    0.819
12      0.820    0.828
13      1.310    0.840
14      2.019    0.769
15      1.836    0.786
16      1.457    0.909
17      2.237    0.792
18      2.922    0.776
19      2.431    0.800
20      1.558    0.760
21      4.550    0.648
22      5.249    0.500
23      3.489    0.580
24      5.588    0.536
25      6.290    0.664
26      3.803    0.685
27      3.554    0.705
28      6.323    0.656
29      7.516    0.671
30      6.799    0.665
31      7.020    0.674
32      9.851    0.722
33     10.810    0.693
34     10.492    0.750
35     12.201    0.812
36     16.453    0.766
37     16.513    0.667
38     16.577    0.615
39     15.504    0.769
40     14.264    0.319
41      7.930    0.556
42      8.849    0.331
43      6.091    0.472
44      1.175    0.641
45      0.596    0.841
46      0.829    0.794
47      0.334    0.856
48      0.322    0.848
49      0.361    0.833
50      0.402    0.862
51      0.289    0.848
52      0.528    0.768
53      0.602    0.817
54      0.739    0.810
55      0.854    0.726
56      0.479    0.762
57      0.470    0.836
58      0.658    0.755
59      0.460    0.801
60      0.394    0.855
61      0.437    0.802
62      0.111    0.796
63      0.088    0.789
64      0.516    0.810
65      0.486    0.797
66      0.341    0.826
67      0.416    0.793
68      0.494    0.827
69      0.763    0.719
70      4.326    0.558
71      7.894    0.592
72      4.264    0.509
73      3.739    0.525
74      1.593    0.643
75      2.223    0.686
76      4.492    0.469
77      5.381    0.413
78      1.704    0.733
79      2.420    0.691
80      1.461    0.800
81      0.447    0.891
82      1.249    0.783
83      0.954    0.842
84      0.209    0.907
85      0.514    0.890
86      0.612    0.855
87      0.367    0.894
88      0.577    0.908
89      0.676    0.887
90      0.676    0.877
91      0.581    0.939
92      0.853    0.892
93      1.135    0.853
94      0.867    0.831
95      0.829    0.875
96      2.597    0.646
97      2.027    0.750
98      0.494    0.906
99      0.620    0.946
100     1.047    0.910
101     1.155    0.910
102     0.728    0.890
103     0.605    0.922
104     0.589    0.909
105     0.572    0.888
106     0.754    0.877
107     0.554    0.896
108     0.780    0.856
109     0.789    0.840
110     0.701    0.835
111     0.834    0.815
112     1.898    0.744
113     2.140    0.737
114     1.432    0.767
115     2.881    0.562
116     2.538    0.647
117     3.007    0.594
118     1.992    0.858
119     0.496    0.851
120     0.767    0.858
121     0.919    0.783
122     0.998    0.726
123     0.331    0.871
124     0.663    0.838
125     0.807    0.814
126     0.843    0.794
127     0.603    0.846
128     0.958    0.815
129     1.019    0.821
130     1.012    0.806
131     1.444    0.756
