#RES  Dist(A) lDDT_CA(%)
1       7.305    0.383
2       1.983    0.699
3       1.556    0.824
4       1.593    0.691
5       1.179    0.804
6       0.829    0.897
7       0.695    0.846
8       0.334    0.816
9       0.656    0.797
10      1.585    0.720
11      1.415    0.654
12      1.623    0.691
13      1.981    0.750
14      1.744    0.739
15      0.919    0.755
16      0.519    0.844
17      0.839    0.820
18      0.841    0.835
19      0.421    0.869
20      1.216    0.694
21      1.270    0.750
22      1.055    0.750
23      1.185    0.727
24      0.442    0.721
25      0.719    0.721
26      2.493    0.518
27      2.047    0.606
28      1.151    0.839
29      1.223    0.827
30      0.366    0.862
31      0.281    0.862
32      1.143    0.750
33      1.777    0.681
34      2.190    0.643
35      4.174    0.470
36      6.344    0.322
37      4.767    0.519
38      4.386    0.585
39      3.217    0.647
40      3.678    0.672
41      3.178    0.736
42      1.919    0.812
43      0.857    0.867
44      0.999    0.767
45      0.976    0.708
46      1.456    0.644
47      1.521    0.667
48      1.056    0.656
49      0.964    0.652
50      0.851    0.647
51      0.971    0.696
52      0.696    0.732
53      0.782    0.779
54      0.801    0.785
55      0.847    0.785
56      1.022    0.727
57      0.586    0.703
58      1.399    0.724
59      1.406    0.651
60      0.917    0.654
61      1.219    0.645
62      1.091    0.633
63      0.590    0.708
64      0.740    0.788
65      0.716    0.726
66      0.938    0.671
67      0.826    0.672
68      0.963    0.685
69      0.912    0.697
70      5.006    0.500
71      5.492    0.474
72      8.330    0.206
73      8.974    0.500
74     10.245    0.477
75      5.135    0.543
76      4.077    0.644
77      4.987    0.594
78      9.815    0.226
79     15.779    0.229
80     16.779    0.224
81     13.079    0.243
82     14.890    0.280
