#RES  Dist(A) lDDT_CA(%)
1       8.575    0.325
2       2.723    0.583
3       0.845    0.723
4       0.778    0.750
5       2.759    0.679
6       2.571    0.681
7       2.094    0.640
8       1.899    0.651
9       2.130    0.595
10      2.209    0.538
11      1.913    0.673
12      2.292    0.546
13      1.267    0.613
14      1.417    0.633
15      1.101    0.665
16      0.418    0.724
17      0.700    0.762
18      0.559    0.733
19      0.799    0.665
20      1.523    0.517
21      1.975    0.570
22      1.253    0.574
23      2.100    0.494
24      4.935    0.351
25      3.664    0.618
26      4.693    0.564
27      2.765    0.627
28      2.181    0.712
29      2.038    0.635
30      7.540    0.281
31     12.813    0.263
32     16.371    0.263
33     13.600    0.266
34     14.008    0.286
35     10.483    0.380
36      3.573    0.513
37      0.735    0.774
38      0.961    0.775
39      2.288    0.532
40      1.641    0.725
41      0.246    0.782
42      1.630    0.660
43      1.278    0.671
44      1.317    0.695
45      0.937    0.642
46      0.664    0.662
47      1.338    0.632
48      0.795    0.713
49      0.847    0.784
50      0.377    0.750
51      0.919    0.717
52      0.898    0.723
53      1.226    0.707
54      1.226    0.648
55      0.906    0.658
56      1.080    0.641
57      0.523    0.623
58      0.697    0.625
59      0.945    0.641
60      0.765    0.654
61      1.088    0.762
62      1.164    0.767
63      1.128    0.708
64      1.372    0.696
65      1.243    0.685
66      1.026    0.653
67      0.956    0.672
68      0.682    0.701
69      1.255    0.580
70      4.259    0.459
71      5.583    0.408
72      5.094    0.375
73      5.332    0.467
74      4.778    0.568
75      9.427    0.450
76     12.112    0.356
77     17.102    0.328
78     20.897    0.149
79     24.777    0.243
80     24.417    0.270
81     19.152    0.304
82     18.534    0.350
