#RES  Dist(A) lDDT_CA(%)
1      16.615    0.611
2      11.402    1.000
3      11.802    0.955
4      10.100    0.875
5       9.524    0.962
6      11.011    0.964
7      10.196    0.967
8       8.828    0.917
9       9.162    0.938
10      9.446    0.941
11      8.344    0.971
12      7.644    0.903
13      8.255    0.963
14      8.026    0.738
15      7.253    0.875
16      6.322    0.825
17      4.264    0.808
18      3.109    0.683
19      2.094    0.806
20      3.640    0.767
21      3.055    0.816
22      1.567    0.837
23      1.744    0.809
24      2.096    0.855
25      0.952    0.964
26      0.555    0.939
27      0.407    0.973
28      0.461    0.976
29      0.802    0.914
30      0.403    0.919
31      0.566    0.875
32      0.428    0.921
33      0.218    0.946
34      0.264    0.894
35      0.917    0.872
36      0.943    0.899
37      0.586    0.939
38      0.611    0.900
39      0.500    0.890
40      0.661    0.917
41      0.532    0.904
42      0.680    0.898
43      0.404    0.887
44      0.225    0.934
45      0.372    0.952
46      0.390    0.958
47      0.242    0.971
48      0.314    0.972
49      0.597    0.911
50      0.615    0.925
51      0.381    0.970
52      0.206    0.951
53      0.650    0.881
54      1.051    0.826
55      0.994    0.864
56      0.852    0.894
57      0.787    0.929
58      1.756    0.708
59      0.812    0.919
60      0.461    0.929
61      0.476    0.938
62      0.285    0.947
63      0.472    0.890
64      0.332    0.945
65      0.466    0.907
66      0.494    0.944
67      1.874    0.793
68      1.271    0.759
69      0.948    0.855
70      1.025    0.855
71      2.813    0.787
72      3.394    0.798
73      2.315    0.723
74      1.591    0.819
75      1.481    0.867
76      1.390    0.793
77      0.950    0.839
78      0.933    0.816
79      0.687    0.846
80      0.639    0.879
81      0.853    0.816
82      0.907    0.891
83      1.287    0.895
84      1.536    0.894
85      1.818    0.891
86      1.360    0.925
87      1.784    0.682
88      1.289    0.667
89      0.579    0.853
90      1.200    0.844
91      1.094    0.769
92      1.049    0.863
93      0.582    0.911
94      0.522    0.889
95      0.605    0.886
96      0.594    0.928
97      0.325    0.958
98      0.458    0.951
99      0.464    0.967
100     0.583    0.944
101     0.963    0.946
102     0.804    0.963
103     0.515    0.976
104     0.517    0.967
105     0.499    0.969
106     0.489    0.963
107     0.456    0.955
108     0.525    0.946
109     0.718    0.917
110     1.366    0.896
111     0.603    0.914
112     0.553    0.917
113     0.999    0.908
114     2.592    0.743
115     3.276    0.804
116     3.901    0.679
117     4.581    0.977
118     4.579    0.904
119     2.794    0.893
120     1.529    0.906
121     0.531    0.935
122     0.642    0.875
123     0.953    0.881
124     1.059    0.894
125     0.660    0.925
126     0.338    0.963
127     0.360    0.969
128     0.449    0.976
129     0.565    0.984
130     0.693    0.989
