#RES  Dist(A) lDDT_CA(%)
1       4.037    0.722
2       2.460    1.000
3       3.450    1.000
4       3.117    0.979
5       3.125    0.923
6       3.984    0.964
7       3.189    0.967
8       2.534    0.933
9       3.917    0.938
10      4.083    0.971
11      2.614    0.941
12      3.408    0.806
13      4.812    0.925
14      3.984    0.821
15      2.530    0.917
16      2.025    0.812
17      1.604    0.760
18      1.213    0.726
19      1.199    0.812
20      0.814    0.888
21      0.633    0.897
22      0.836    0.929
23      1.093    0.921
24      1.324    0.919
25      0.874    0.943
26      0.382    0.909
27      0.472    0.926
28      0.402    0.935
29      0.253    0.944
30      0.321    0.926
31      0.380    0.928
32      0.342    0.917
33      0.587    0.940
34      1.094    0.926
35      1.141    0.928
36      0.615    0.947
37      0.396    0.928
38      0.214    0.932
39      0.319    0.935
40      0.501    0.908
41      0.768    0.912
42      0.803    0.883
43      0.471    0.917
44      0.338    0.923
45      0.512    0.913
46      0.575    0.915
47      0.394    0.907
48      0.465    0.943
49      0.556    0.929
50      0.562    0.969
51      0.976    0.857
52      0.407    0.910
53      1.000    0.812
54      1.612    0.701
55      0.982    0.821
56      0.923    0.856
57      0.328    0.935
58      0.429    0.983
59      0.506    0.942
60      0.541    0.954
61      0.372    0.923
62      0.437    0.925
63      0.816    0.908
64      0.481    0.949
65      0.527    0.924
66      0.758    0.979
67      0.985    0.957
68      1.355    0.870
69      1.158    0.757
70      1.179    0.842
71      2.524    0.722
72      2.884    0.831
73      2.903    0.713
74      2.835    0.757
75      1.997    0.789
76      1.866    0.755
77      2.072    0.797
78      1.667    0.816
79      1.256    0.837
80      1.315    0.886
81      0.923    0.919
82      0.536    0.957
83      0.429    0.961
84      0.900    0.846
85      0.684    0.837
86      0.855    0.800
87      1.375    0.727
88      1.714    0.692
89      1.479    0.750
90      1.758    0.729
91      1.704    0.712
92      0.888    0.887
93      1.506    0.863
94      1.115    0.896
95      0.955    0.842
96      0.745    0.928
97      0.444    0.958
98      0.466    0.980
99      0.442    0.962
100     0.573    0.979
101     1.055    0.967
102     0.796    0.954
103     0.369    0.992
104     0.608    0.967
105     0.902    0.938
106     1.258    0.919
107     0.885    0.938
108     0.892    0.952
109     0.842    0.889
110     1.403    0.812
111     0.688    0.853
112     0.638    0.896
113     0.513    0.893
114     0.770    0.875
115     1.673    0.935
116     3.477    0.560
117     4.679    0.568
118     4.160    0.923
119     1.786    0.952
120     1.336    0.922
121     0.679    0.913
122     0.426    0.887
123     0.439    0.915
124     0.573    0.894
125     0.430    0.946
126     0.293    0.955
127     0.429    0.964
128     1.188    0.872
129     1.948    0.847
130     2.810    0.750
