#RES  Dist(A) lDDT_CA(%)
1      27.352    0.778
2      25.304    0.950
3      22.564    0.977
4      18.567    1.000
5      21.045    0.923
6      22.058    0.964
7      16.997    0.983
8      15.235    0.950
9      17.792    0.953
10     16.089    0.897
11     11.148    0.971
12     11.692    0.944
13     13.376    0.775
14     10.353    0.667
15      6.154    0.792
16      7.257    0.750
17      4.306    0.779
18      2.984    0.665
19      1.869    0.831
20      3.341    0.741
21      3.047    0.676
22      1.791    0.701
23      1.817    0.776
24      2.853    0.734
25      1.800    0.743
26      2.522    0.765
27      1.749    0.761
28      1.218    0.802
29      0.743    0.892
30      0.434    0.891
31      0.611    0.841
32      0.483    0.882
33      0.373    0.924
34      0.340    0.872
35      0.513    0.878
36      0.506    0.936
37      0.525    0.939
38      0.677    0.886
39      0.840    0.825
40      0.552    0.875
41      0.400    0.887
42      0.694    0.893
43      0.350    0.893
44      0.474    0.872
45      0.392    0.913
46      0.528    0.901
47      0.623    0.895
48      0.908    0.840
49      1.044    0.812
50      0.647    0.931
51      1.354    0.804
52      0.902    0.903
53      1.306    0.812
54      1.248    0.806
55      1.262    0.829
56      1.120    0.872
57      0.827    0.923
58      1.720    0.658
59      0.959    0.895
60      0.602    0.949
61      0.447    0.919
62      0.418    0.908
63      0.745    0.864
64      0.677    0.884
65      0.529    0.894
66      0.649    0.944
67      0.549    0.948
68      0.703    0.907
69      0.967    0.868
70      0.623    0.908
71      2.420    0.824
72      3.171    0.863
73      1.932    0.830
74      1.337    0.875
75      1.746    0.898
76      1.493    0.835
77      0.743    0.906
78      0.404    0.875
79      0.357    0.894
80      0.559    0.886
81      0.545    0.735
82      1.431    0.837
83      1.466    0.868
84      2.550    0.750
85      2.746    0.826
86      3.247    0.783
87      3.242    0.750
88      2.312    0.558
89      0.886    0.808
90      1.129    0.771
91      0.974    0.769
92      0.815    0.863
93      0.860    0.847
94      0.802    0.882
95      1.201    0.891
96      1.222    0.894
97      0.622    0.898
98      0.617    0.897
99      0.578    0.880
100     0.546    0.917
101     0.630    0.978
102     0.619    0.963
103     0.677    0.911
104     0.734    0.895
105     1.556    0.844
106     1.431    0.904
107     0.919    0.949
108     0.630    0.911
109     0.432    0.889
110     0.739    0.896
111     0.215    0.914
112     0.918    0.880
113     1.605    0.832
114     2.968    0.704
115     3.864    0.761
116     4.402    0.655
117     5.097    0.977
118     5.099    0.885
119     2.830    0.905
120     1.930    0.844
121     0.649    0.886
122     0.472    0.871
123     0.710    0.850
124     0.937    0.890
125     0.517    0.887
126     0.331    0.869
127     0.787    0.844
128     1.789    0.768
129     0.986    0.790
130     3.079    0.663
