#RES  Dist(A) lDDT_CA(%)
1      11.543    0.750
2       7.629    0.609
3       6.276    0.583
4       3.362    0.760
5       1.911    0.800
6       3.053    0.837
7       3.082    0.788
8       1.741    0.787
9       1.504    0.865
10      2.341    0.850
11      1.704    0.807
12      0.821    0.891
13      1.375    0.929
14      1.081    0.929
15      0.451    0.940
16      0.762    0.928
17      0.849    0.940
18      0.529    0.964
19      0.660    0.933
20      0.931    0.911
21      0.648    0.959
22      0.806    0.904
23      0.736    0.923
24      0.431    0.977
25      0.678    0.915
26      0.921    0.898
27      0.950    0.926
28      0.775    0.884
29      0.466    0.923
30      1.433    0.870
31      1.477    0.856
32      1.406    0.820
33      1.857    0.734
34      2.537    0.695
35      3.928    0.640
36      3.080    0.731
37      2.232    0.614
38      2.687    0.527
39      3.208    0.489
40      1.083    0.763
41      3.572    0.487
42      2.059    0.590
43      6.856    0.750
44      3.933    0.807
45      4.459    0.670
46      4.198    0.708
47      2.230    0.772
48      1.518    0.889
49      2.077    0.850
50      0.843    0.860
51      0.573    0.946
52      1.298    0.956
53      0.864    0.950
54      0.860    0.958
55      1.324    0.971
56      1.061    0.949
57      0.684    0.944
58      0.960    0.948
59      0.881    0.971
60      0.465    0.969
61      0.546    0.957
62      0.712    0.987
63      0.482    0.975
64      0.535    0.971
65      0.659    0.978
66      0.398    0.946
67      0.440    0.875
68      0.898    0.845
69      0.844    0.840
70      0.765    0.791
71      0.735    0.766
72      1.120    0.731
73      1.142    0.815
74      0.771    0.664
75      0.823    0.718
76      1.157    0.784
77      1.201    0.630
78      2.050    0.518
79      2.185    0.688
80      8.364    0.528
81     10.127    0.412
82      9.211    0.469
83      9.353    0.333
84      6.505    0.488
85      4.739    0.598
86      3.882    0.700
87      3.010    0.682
88      2.876    0.574
89      2.502    0.697
90      1.817    0.865
91      1.145    0.811
92      0.826    0.846
93      0.645    0.942
94      0.496    0.957
95      0.649    0.845
96      0.530    0.885
97      0.401    0.949
98      0.340    0.948
99      0.562    0.915
100     0.528    0.931
101     0.372    0.932
102     0.456    0.946
103     0.462    0.964
104     0.509    0.954
105     0.498    0.888
106     0.259    0.939
107     0.492    0.959
108     0.570    0.919
109     0.234    0.908
110     0.538    0.938
111     0.680    0.922
112     0.645    0.863
113     0.576    0.881
114     0.587    0.911
115     0.605    0.879
116     0.745    0.822
117     0.574    0.863
118     0.756    0.900
119     0.749    0.815
120     0.668    0.784
121     1.178    0.838
122     2.180    0.812
123     2.873    0.575
124     3.710    0.450
