#RES  Dist(A) lDDT_CA(%)
1       8.074    0.383
2       2.445    0.615
3       1.276    0.723
4       2.711    0.632
5       3.870    0.688
6       4.224    0.681
7       3.612    0.654
8       2.079    0.632
9       3.218    0.574
10      3.737    0.515
11      2.829    0.590
12      1.786    0.493
13      1.235    0.569
14      1.264    0.600
15      1.380    0.596
16      1.686    0.667
17      2.321    0.733
18      2.121    0.676
19      2.475    0.580
20      2.695    0.583
21      1.198    0.630
22      1.545    0.608
23      1.652    0.581
24      1.348    0.625
25      1.663    0.603
26      2.380    0.614
27      2.340    0.648
28      2.953    0.699
29      3.215    0.639
30      3.359    0.522
31      5.654    0.348
32      5.523    0.379
33     10.306    0.218
34     10.611    0.246
35     15.766    0.255
36     19.971    0.140
37     20.210    0.250
38     18.197    0.254
39     12.171    0.321
40      8.932    0.418
41      6.723    0.356
42      1.063    0.633
43      0.830    0.621
44      1.053    0.602
45      0.935    0.562
46      0.751    0.546
47      0.820    0.515
48      0.586    0.533
49      1.153    0.475
50      1.168    0.478
51      1.158    0.454
52      0.999    0.500
53      1.212    0.611
54      0.408    0.613
55      0.627    0.623
56      1.614    0.536
57      1.047    0.428
58      2.186    0.349
59      3.272    0.354
60      3.865    0.197
61      0.221    0.419
62      1.461    0.428
63      0.630    0.443
64      0.144    0.489
65      1.471    0.452
66      1.252    0.500
67      2.764    0.417
68      9.964    0.293
69     14.402    0.303
70     16.630    0.264
71     21.201    0.243
72     23.221    0.188
73     25.071    0.267
74     25.966    0.280
75     24.698    0.229
76     25.690    0.242
77     27.837    0.172
78     30.164    0.161
79     32.901    0.167
80     32.784    0.132
81     34.461    0.135
82     37.140    0.200
