#RES  Dist(A) lDDT_CA(%)
1       3.453    0.481
2       3.750    0.464
3       1.091    0.783
4       1.750    0.650
5       1.332    0.705
6       1.057    0.770
7       1.096    0.772
8       1.010    0.767
9       0.856    0.833
10      0.953    0.810
11      0.926    0.759
12      0.750    0.767
13      0.814    0.813
14      0.989    0.784
15      0.919    0.750
16      0.895    0.778
17      1.006    0.720
18      2.110    0.707
19      3.127    0.720
20      2.909    0.750
21      5.707    0.625
22      5.987    0.540
23      3.642    0.603
24      6.127    0.505
25      6.971    0.632
26      4.404    0.663
27      3.775    0.690
28      7.498    0.625
29      8.858    0.564
30      7.685    0.628
31      7.232    0.681
32     12.903    0.602
33     14.029    0.625
34     10.915    0.580
35     12.409    0.688
36     18.017    0.734
37     18.558    0.517
38     19.184    0.615
39     17.307    0.596
40     16.618    0.403
41     10.763    0.509
42     10.907    0.338
43      7.771    0.426
44      0.878    0.615
45      1.096    0.762
46      0.834    0.828
47      0.552    0.839
48      0.467    0.839
49      1.001    0.789
50      0.656    0.821
51      0.654    0.811
52      1.105    0.741
53      0.963    0.779
54      0.306    0.821
55      1.335    0.722
56      2.137    0.695
57      1.493    0.763
58      0.829    0.724
59      0.631    0.795
60      0.741    0.849
61      0.676    0.840
62      0.466    0.852
63      1.385    0.789
64      1.055    0.821
65      0.517    0.920
66      1.083    0.855
67      1.481    0.857
68      2.157    0.846
69      2.222    0.744
70      2.968    0.712
71      4.485    0.618
72      5.760    0.537
73      5.635    0.608
74      3.693    0.643
75      4.142    0.650
76      3.895    0.633
77      2.087    0.641
78      0.785    0.841
79      1.091    0.853
80      1.113    0.827
81      0.645    0.848
82      0.497    0.872
83      0.753    0.860
84      0.345    0.898
85      0.185    0.913
86      0.444    0.869
87      0.281    0.903
88      0.322    0.911
89      0.283    0.923
90      0.339    0.870
91      0.343    0.917
92      0.308    0.901
93      0.387    0.880
94      0.498    0.890
95      0.535    0.880
96      1.748    0.688
97      1.184    0.857
98      0.274    0.922
99      0.584    0.938
100     0.688    0.944
101     0.756    0.938
102     0.544    0.913
103     0.326    0.909
104     0.301    0.923
105     0.519    0.929
106     0.829    0.873
107     0.504    0.896
108     0.608    0.903
109     0.556    0.895
110     0.866    0.817
111     1.314    0.730
112     2.677    0.609
113     2.475    0.697
114     1.389    0.790
115     3.279    0.519
116     2.451    0.664
117     2.189    0.740
118     1.663    0.833
119     0.967    0.827
120     1.183    0.852
121     1.788    0.783
122     1.437    0.716
123     0.552    0.832
124     0.527    0.892
125     0.667    0.840
126     0.571    0.846
127     0.307    0.904
128     0.415    0.911
129     0.554    0.840
130     0.412    0.900
131     0.537    0.864
