#RES  Dist(A) lDDT_CA(%)
1       8.126    0.308
2       2.720    0.625
3       2.382    0.620
4       1.649    0.650
5       1.586    0.660
6       1.592    0.758
7       1.468    0.781
8       1.248    0.767
9       1.024    0.797
10      1.265    0.820
11      1.518    0.819
12      0.985    0.832
13      1.168    0.784
14      2.157    0.764
15      1.467    0.815
16      1.662    0.761
17      3.375    0.560
18      3.414    0.784
19      0.916    0.660
20      3.953    0.690
21      5.970    0.641
22      6.642    0.540
23      4.264    0.621
24      6.512    0.566
25      7.733    0.632
26      5.423    0.658
27      5.185    0.675
28      8.222    0.625
29      9.091    0.650
30      8.261    0.634
31      8.613    0.701
32     11.089    0.639
33     12.222    0.636
34     11.814    0.648
35     13.406    0.600
36     18.878    0.531
37     19.499    0.367
38     18.103    0.481
39     19.233    0.538
40     14.910    0.514
41      9.482    0.472
42     10.496    0.368
43      7.158    0.443
44      0.320    0.526
45      0.794    0.768
46      1.255    0.765
47      0.786    0.801
48      0.952    0.875
49      1.168    0.807
50      0.917    0.817
51      0.867    0.811
52      0.926    0.709
53      1.173    0.745
54      0.643    0.758
55      0.943    0.698
56      0.845    0.738
57      0.568    0.809
58      0.310    0.745
59      0.736    0.769
60      0.271    0.868
61      0.357    0.840
62      0.748    0.778
63      0.828    0.796
64      1.083    0.859
65      1.716    0.741
66      1.641    0.698
67      1.042    0.836
68      1.489    0.705
69      1.945    0.613
70      1.208    0.817
71      6.981    0.526
72      5.960    0.556
73      5.698    0.633
74      4.687    0.607
75      3.925    0.629
76      3.118    0.750
77      2.142    0.734
78      0.909    0.818
79      0.692    0.819
80      0.883    0.818
81      0.327    0.836
82      0.963    0.829
83      1.026    0.821
84      0.364    0.852
85      0.572    0.866
86      0.782    0.863
87      0.758    0.864
88      0.424    0.859
89      0.453    0.894
90      0.593    0.880
91      0.476    0.913
92      0.530    0.877
93      1.353    0.804
94      2.487    0.692
95      2.879    0.641
96      2.652    0.667
97      2.859    0.679
98      1.689    0.766
99      1.595    0.893
100     1.342    0.924
101     1.102    0.931
102     1.056    0.837
103     1.463    0.746
104     1.100    0.841
105     0.483    0.852
106     1.044    0.763
107     1.241    0.765
108     0.848    0.819
109     0.456    0.850
110     0.780    0.830
111     1.894    0.620
112     3.212    0.558
113     2.927    0.651
114     1.386    0.790
115     3.449    0.488
116     2.049    0.664
117     2.805    0.635
118     2.013    0.767
119     0.420    0.798
120     0.398    0.869
121     0.360    0.796
122     1.193    0.707
123     0.397    0.812
124     0.662    0.838
125     0.664    0.793
126     0.825    0.781
127     0.791    0.816
128     0.565    0.821
129     1.103    0.776
130     1.627    0.756
131     1.580    0.750
