#RES  Dist(A) lDDT_CA(%)
1       8.220    0.611
2       3.347    0.766
3       4.069    0.800
4       3.250    0.635
5       1.117    0.783
6       1.982    0.815
7       3.009    0.760
8       1.078    0.744
9       1.744    0.827
10      2.712    0.833
11      1.865    0.778
12      1.356    0.859
13      2.256    0.897
14      1.991    0.872
15      0.913    0.925
16      1.171    0.922
17      1.328    0.946
18      0.893    0.979
19      0.846    0.952
20      0.910    0.944
21      0.663    0.977
22      0.608    0.957
23      0.723    0.934
24      0.262    0.988
25      0.227    0.985
26      0.710    0.939
27      0.993    0.932
28      0.812    0.959
29      0.341    0.981
30      1.454    0.902
31      2.158    0.869
32      1.787    0.872
33      1.015    0.897
34      2.238    0.811
35      2.783    0.772
36      1.852    0.846
37      1.306    0.807
38      2.429    0.759
39      2.534    0.826
40      2.166    0.750
41      4.164    0.605
42      2.919    0.450
43      3.787    0.761
44      1.040    0.807
45      2.536    0.810
46      2.624    0.792
47      1.037    0.779
48      1.072    0.935
49      1.892    0.917
50      0.789    0.913
51      0.778    0.973
52      1.234    0.978
53      0.803    0.994
54      0.700    0.995
55      0.882    0.986
56      0.551    0.994
57      0.419    0.985
58      0.630    0.971
59      0.645    0.993
60      0.586    1.000
61      0.624    0.995
62      0.796    0.981
63      0.931    0.988
64      0.839    0.980
65      0.690    0.928
66      0.592    0.946
67      0.574    0.891
68      1.004    0.800
69      1.099    0.801
70      0.965    0.818
71      1.271    0.755
72      2.073    0.719
73      2.053    0.774
74      1.274    0.789
75      1.760    0.808
76      2.344    0.724
77      1.433    0.870
78      1.182    0.759
79      2.355    0.771
80      4.231    0.486
81      5.445    0.721
82      5.361    0.688
83      5.995    0.722
84      4.580    0.675
85      3.575    0.707
86      3.197    0.700
87      3.084    0.574
88      1.530    0.770
89      1.169    0.864
90      1.647    0.743
91      2.157    0.789
92      1.603    0.853
93      1.175    0.897
94      1.430    0.897
95      1.559    0.830
96      1.086    0.833
97      0.786    0.936
98      0.750    0.932
99      0.779    0.910
100     0.592    0.924
101     0.499    0.920
102     0.548    0.931
103     0.689    0.946
104     0.594    0.921
105     0.296    0.926
106     0.482    0.949
107     0.636    0.959
108     0.520    0.912
109     0.427    0.929
110     0.697    0.963
111     0.848    0.938
112     0.657    0.900
113     0.606    0.955
114     0.962    0.964
115     0.996    0.919
116     0.538    0.882
117     0.720    0.927
118     1.156    0.938
119     0.745    0.889
120     0.447    0.905
121     0.934    0.912
122     0.728    0.891
123     1.284    0.762
124     2.980    0.550
